E(MeV)	"ENDF/B-VII.1: H-1(N,TOT)"
1.00000E-11	1176.37
1.10304E-11	1120.1
1.21669E-11	1066.52
1.34205E-11	1015.5
1.48034E-11	966.925
1.63287E-11	920.675
1.80111E-11	876.639
1.98669E-11	834.711
2.19139E-11	794.79
2.41719E-11	756.781
2.66625E-11	720.592
2.94097E-11	686.135
3.24400E-11	653.329
3.57825E-11	622.094
3.94694E-11	592.354
4.35362E-11	564.039
4.80221E-11	537.081
5.28819E-11	511.84
5.29701E-11	511.443
5.83307E-11	487.383
5.84280E-11	487.005
6.43409E-11	464.097
6.44483E-11	463.737
7.09704E-11	441.928
7.10888E-11	441.585
7.82830E-11	420.821
7.84136E-11	420.495
8.63490E-11	400.726
8.64931E-11	400.416
9.52462E-11	381.595
9.54051E-11	381.3
1.05060E-10	363.382
1.05235E-10	363.101
1.15885E-10	346.042
1.16078E-10	345.775
1.27826E-10	329.535
1.28039E-10	329.28
1.40996E-10	313.82
1.41232E-10	313.576
1.55524E-10	298.86
1.55784E-10	298.628
1.71549E-10	284.618
1.71835E-10	284.398
1.89225E-10	271.061
1.89540E-10	270.852
2.08722E-10	258.155
2.09070E-10	257.956
2.30228E-10	245.871
2.30612E-10	245.681
2.53950E-10	234.177
2.54374E-10	233.997
2.80116E-10	223.047
2.80583E-10	222.876
3.08979E-10	212.453
3.09494E-10	212.29
3.40815E-10	202.371
3.41383E-10	202.215
3.75931E-10	192.774
3.76558E-10	192.626
4.14666E-10	183.641
4.15358E-10	183.5
4.57392E-10	174.95
4.58155E-10	174.816
5.04520E-10	166.68
5.05362E-10	166.552
5.56504E-10	158.81
5.57433E-10	158.689
6.13845E-10	151.322
6.14869E-10	151.207
6.77094E-10	144.198
6.78223E-10	144.088
7.46859E-10	137.421
7.48105E-10	137.316
8.23813E-10	130.974
8.25188E-10	130.875
9.08697E-10	124.842
9.10213E-10	124.747
1.00233E-09	119.01
1.00400E-09	118.92
1.10560E-09	113.464
1.10745E-09	113.379
1.21952E-09	108.191
1.22156E-09	108.11
1.34518E-09	103.178
1.34742E-09	103.101
1.48378E-09	98.413
1.48625E-09	98.3395
1.63666E-09	93.8843
1.63939E-09	93.8145
1.80530E-09	89.5811
1.80831E-09	89.5152
1.99463E-09	85.4422
2.00536E-09	85.2082
2.20015E-09	81.5802
2.22748E-09	81.0723
2.42685E-09	77.9093
2.47432E-09	77.1578
2.67691E-09	74.4211
2.74839E-09	73.4575
2.95273E-09	71.1078
3.05296E-09	69.9577
3.25697E-09	67.9616
3.39112E-09	66.6519
3.59256E-09	64.9755
3.76691E-09	63.5278
3.96272E-09	62.1425
4.18415E-09	60.5795
4.37103E-09	59.4561
4.64783E-09	57.796
4.82141E-09	56.91
5.16263E-09	55.1721
5.31819E-09	54.4982
5.73475E-09	52.6978
5.86616E-09	52.215
6.36995E-09	50.3685
6.47059E-09	50.0551
7.07585E-09	48.1752
7.13730E-09	48.0132
7.85960E-09	46.1136
7.87271E-09	46.0844
8.68389E-09	44.2797
8.73058E-09	44.1761
9.57865E-09	42.5816
9.69761E-09	42.3584
1.05656E-08	40.9884
1.08477E-08	40.5441
1.16543E-08	39.4827
1.21343E-08	38.8525
1.28551E-08	38.0628
1.35734E-08	37.2776
1.41796E-08	36.7255
1.51832E-08	35.8137
1.56406E-08	35.4679
1.69839E-08	34.4552
1.72522E-08	34.2881
1.90298E-08	33.1844
1.91321E-08	33.1211
2.09906E-08	32.1783
2.15511E-08	31.8947
2.31534E-08	31.2321
2.42771E-08	30.7686
2.52209E-08	30.4282
2.52419E-08	30.4209
2.53000E-08	30.4007
2.79068E-08	29.5914
2.86998E-08	29.3459
3.07823E-08	28.8284
3.25565E-08	28.3888
3.39540E-08	28.1133
3.71920E-08	27.4771
3.74525E-08	27.4367
4.13115E-08	26.841
4.24854E-08	26.6603
4.55681E-08	26.29
4.88745E-08	25.8941
5.02633E-08	25.7664
5.54423E-08	25.2917
5.66211E-08	25.1841
6.11549E-08	24.8712
6.60549E-08	24.5343
6.74561E-08	24.4626
7.44066E-08	24.1087
7.76004E-08	23.9467
8.20732E-08	23.7819
9.05297E-08	23.4715
9.24546E-08	23.4012
9.98577E-08	23.2102
1.10147E-07	22.946
1.11701E-07	22.9063
1.21496E-07	22.7345
1.34014E-07	22.5161
1.36864E-07	22.4666
1.47823E-07	22.3404
1.63054E-07	22.166
1.71253E-07	22.0726
1.79855E-07	22.0105
1.98386E-07	21.8777
2.18827E-07	21.7321
2.20371E-07	21.7212
2.41375E-07	21.6323
2.66245E-07	21.5279
2.93678E-07	21.4135
3.23938E-07	21.344
3.57316E-07	21.2681
3.94132E-07	21.1851
4.11050E-07	21.1472
4.34743E-07	21.1206
4.79537E-07	21.0708
5.28947E-07	21.0165
5.83448E-07	20.9571
6.12785E-07	20.9254
6.43565E-07	20.9108
7.09876E-07	20.8799
7.83020E-07	20.8463
8.63700E-07	20.8097
9.52693E-07	20.7697
1.00760E-06	20.7453
1.05086E-06	20.7385
1.15913E-06	20.7218
1.27857E-06	20.7038
1.41030E-06	20.6844
1.55562E-06	20.6632
1.71590E-06	20.6402
1.89271E-06	20.6151
1.96022E-06	20.6056
2.08772E-06	20.6013
2.30284E-06	20.5942
2.54012E-06	20.5866
2.80184E-06	20.5786
3.09053E-06	20.5699
3.40897E-06	20.5605
3.76022E-06	20.5504
4.14767E-06	20.5395
4.57503E-06	20.5277
5.04643E-06	20.5148
5.33729E-06	20.5069
5.56639E-06	20.5062
6.13994E-06	20.5044
6.77258E-06	20.5026
7.47040E-06	20.5007
8.24013E-06	20.4988
9.08917E-06	20.4969
1.00257E-05	20.4949
1.10587E-05	20.4928
1.22842E-05	20.4905
1.35499E-05	20.4882
1.49461E-05	20.4858
1.66016E-05	20.483
1.83121E-05	20.4803
2.01990E-05	20.4773
2.22802E-05	20.4742
2.47492E-05	20.4705
2.71081E-05	20.4671
3.01122E-05	20.4629
3.34475E-05	20.4582
3.68938E-05	20.4535
4.06952E-05	20.4484
4.33445E-05	20.4448
4.48884E-05	20.4445
4.95135E-05	20.4435
5.50005E-05	20.4424
6.06676E-05	20.4414
6.69186E-05	20.4403
7.38137E-05	20.4391
8.14192E-05	20.4379
8.98084E-05	20.4365
9.97559E-05	20.435
1.10811E-04	20.4333
1.21372E-04	20.4318
1.32947E-04	20.4301
1.45618E-04	20.4283
1.58387E-04	20.4266
1.73492E-04	20.4245
1.90027E-04	20.4222
2.06691E-04	20.42
2.26402E-04	20.4173
2.46256E-04	20.4147
2.67850E-04	20.4119
2.91338E-04	20.4088
3.14667E-04	20.4058
3.44675E-04	20.4019
3.77526E-04	20.3976
4.10632E-04	20.3934
4.49791E-04	20.3883
4.92661E-04	20.3829
5.35863E-04	20.3773
5.78799E-04	20.3719
6.42909E-04	20.3637
6.94423E-04	20.3572
7.50027E-04	20.3502
8.33143E-04	20.3396
9.06203E-04	20.3304
9.85669E-04	20.3204
1.07210E-03	20.3095
1.15795E-03	20.2987
1.27726E-03	20.2836
1.36994E-03	20.272
1.50058E-03	20.2555
1.66679E-03	20.2346
1.80035E-03	20.2179
1.95822E-03	20.198
2.12994E-03	20.1765
2.30049E-03	20.1551
2.55543E-03	20.1231
2.79898E-03	20.0925
3.02326E-03	20.0644
3.24262E-03	20.0368
3.50227E-03	20.0043
3.86313E-03	19.959
4.26118E-03	19.9091
4.66754E-03	19.8581
5.11240E-03	19.8024
5.63917E-03	19.7363
6.30797E-03	19.6525
6.90953E-03	19.5771
7.51543E-03	19.5011
8.23173E-03	19.4114
8.82902E-03	19.3365
9.40378E-03	19.2645
9.73874E-03	19.2225
1.00155E-02	19.1919
1.50354E-02	18.6364
1.83791E-02	18.2665
1.99908E-02	18.1151
2.46658E-02	17.676
3.99937E-02	16.3112
4.08441E-02	16.2355
6.00000E-02	14.8782
6.08465E-02	14.8183
8.00000E-02	13.7165
8.11287E-02	13.6516
1.00000E-01	12.7504
1.00705E-01	12.7167
1.50000E-01	10.9346
1.51058E-01	10.8964
2.00000E-01	9.64358
3.00000E-01	7.9523
4.00000E-01	6.87663
5.00000E-01	6.1256
6.04114E-01	5.54902
7.04768E-01	5.11534
8.00000E-01	4.78482
8.05643E-01	4.76523
9.06349E-01	4.47593
9.25574E-01	4.42939
1.00705E+00	4.23218
1.08769E+00	4.07414
1.20846E+00	3.83742
1.40988E+00	3.52942
1.48069E+00	3.44156
1.61129E+00	3.27955
1.68045E+00	3.2079
1.81270E+00	3.07089
1.89051E+00	3.00262
2.02822E+00	2.8818
2.11528E+00	2.81551
2.23104E+00	2.72738
2.41693E+00	2.6027
2.43386E+00	2.59135
2.60000E+00	2.49208
2.63668E+00	2.47016
2.85953E+00	2.35124
3.06379E+00	2.25269
3.08525E+00	2.24329
3.29093E+00	2.15326
3.54594E+00	2.05205
3.78101E+00	1.96898
3.88080E+00	1.93371
4.20000E+00	1.83283
4.49355E+00	1.75068
4.86772E+00	1.65407
5.14208E+00	1.59145
5.53880E+00	1.50619
6.04232E+00	1.41104
6.17049E+00	1.38961
6.54585E+00	1.32683
7.09876E+00	1.24503
7.60581E+00	1.17779
7.71312E+00	1.16494
8.11287E+00	1.11707
8.61992E+00	1.06194
9.12697E+00	1.01167
9.32103E+00	0.994052
9.63403E+00	0.965637
1.02126E+01	0.917705
1.07984E+01	0.873386
1.14722E+01	0.826869
1.15000E+01	0.824948
1.22551E+01	0.778587
1.30917E+01	0.732158
1.40000E+01	0.687145
1.51058E+01	0.639047
1.61129E+01	0.600098
1.71199E+01	0.56521
1.81270E+01	0.53378
1.91340E+01	0.505317
2.00000E+01	0.482784